*RAS_DATA_START
*RAS_HEADER_START
*DISP_FMT_X "%.2f"
*DISP_FMT_Y "%.0f"
*DISP_FULLSCALE "99759.0000000000"
*DISP_LINE_COLOR "255.0000000000"
*DISP_LINE_STYLE "0.0000000000"
*DISP_LINE_WIDTH "0.2500000000"
*DISP_NOTE "測定データ-4"
*DISP_OFFSET_Y "0.0000000000"
*DISP_PEAKSEARCH_UNIT_Y "cps"
*DISP_RANGE_BOTTOM "0.0000000000"
*DISP_RANGE_LEFT "20.0000000000"
*DISP_RANGE_LOGCUTOFF "0.0100000000"
*DISP_RANGE_RIGHT "90.0000000000"
*DISP_RANGE_TOP "99759.0000000000"
*DISP_SCALE_MODE_Y "0.0000000000"
*DISP_TAB_NAME "2θ/θ"
*DISP_TITLE_Y "強度"
*DISP_UNIT_Y "cps"
*DISP_WINDOW_NAME "MSG_MACROENGINE"
*FILE_COMMENT " "
*FILE_MD5 ""
*FILE_MEMO " "
*FILE_OPERATOR "Administrator"
*FILE_SAMPLE " "
*FILE_TYPE "RAS_RAW"
*FILE_USERGROUP "システムマネージャ"
*FILE_VERSION "1.0000000000"
*HW_ATTACHMENT_ID "ATT0025"
*HW_ATTACHMENT_NAME "標準|Standard"
*HW_COUNTER_ID-0 "CUT0025"
*HW_COUNTER_ID-1 "CUT0020"
*HW_COUNTER_ID-2 "CUT0020"
*HW_COUNTER_ID-3 "CSL0021"
*HW_COUNTER_ID-4 "CMC0021"
*HW_COUNTER_NAME-0 "D/teX Ultra|D/teX Ultra"
*HW_COUNTER_NAME-1 "None|None"
*HW_COUNTER_NAME-2 "None|None"
*HW_COUNTER_NAME-3 "BBM|BBM"
*HW_COUNTER_NAME-4 "検出器モノクロメータ|Detector monochromator"
*HW_COUNTER_SELECT_NAME "D/teX Ultra|D/teX Ultra"
*HW_GONIOMETER_ID "GON0023"
*HW_GONIOMETER_NAME "SmartLab|SmartLab"
*HW_GONIOMETER_RADIUS-0 "90.0"
*HW_GONIOMETER_RADIUS-1 "114.0"
*HW_GONIOMETER_RADIUS-2 "190.0"
*HW_GONIOMETER_RADIUS-3 "300.0"
*HW_GONIOMETER_RADIUS-4 "187.0"
*HW_GONIOMETER_RADIUS-5 "300.0"
*HW_GONIOMETER_RADIUS-6 "113.0"
*HW_GONIOMETER_RADIUS-7 "331.0"
*HW_I_OPT_ID-0 "CBO0021"
*HW_I_OPT_ID-1 "ICR0023"
*HW_I_OPT_ID-2 "ISL0021"
*HW_I_OPT_ID-3 "ISO0021"
*HW_I_OPT_ID-4 "IAD0021"
*HW_I_OPT_ID-5 "IPR0001"
*HW_I_OPT_NAME-0 "CBOユニット|CBO unit"
*HW_I_OPT_NAME-1 "標準入射光学ユニット|Standard incident optical unit"
*HW_I_OPT_NAME-2 "標準入射スリットボックス|Standard incident slit box"
*HW_I_OPT_NAME-3 "入射平行スリット|Incident parallel slit"
*HW_I_OPT_NAME-4 "長手制限スリット|Length limiting slit"
*HW_I_OPT_NAME-5 "None|None"
*HW_R_ATTENUATER_AUTOMODE "0"
*HW_R_OPT_ID-0 "RSS0021"
*HW_R_OPT_ID-1 "RCR0023"
*HW_R_OPT_ID-2 "RSO0021"
*HW_R_OPT_ID-3 "RRS0021"
*HW_R_OPT_ID-4 "ATN0021"
*HW_R_OPT_ID-5 "RFL0021"
*HW_R_OPT_ID-6 "RAD0021"
*HW_R_OPT_NAME-0 "標準受光スリットボックス1|Standard receiving slit box # 1"
*HW_R_OPT_NAME-1 "標準受光光学ユニット1|Standard receiving unit # 1"
*HW_R_OPT_NAME-2 "標準受光光学ユニット2|Standard receiving optical unit # 2"
*HW_R_OPT_NAME-3 "標準受光スリットボックス2|Standard receiving slit box # 2"
*HW_R_OPT_NAME-4 "標準アッテネータ|Standard Attenuator"
*HW_R_OPT_NAME-5 "Cu Kβ|Cu K-beta"
*HW_R_OPT_NAME-6 "調整用受光スリット|Alignment receiving slit"
*HW_SAMPLE_HOLDER_ID "SMP0023"
*HW_SAMPLE_HOLDER_NAME "標準Zステージ|Standard Z stage"
*HW_XG_CURRENT_MAX "50"
*HW_XG_CURRENT_MIN "2"
*HW_XG_CURRENT_RESOLUTION "2"
*HW_XG_CURRENT_UNIT "mA"
*HW_XG_FOCUS "1mm x 10mm"
*HW_XG_FOCUS_TYPE "Normal"
*HW_XG_ID ""
*HW_XG_NAME "3kW 封入管(ID:1200)|3kW Sealed tube(ID:1200)"
*HW_XG_TARGET_ATOMIC_NUMBER "29.0000000000"
*HW_XG_TARGET_NAME "Cu"
*HW_XG_TYPE "Hermetic"
*HW_XG_VOLTAGE_MAX "60"
*HW_XG_VOLTAGE_MIN "20"
*HW_XG_VOLTAGE_RESOLUTION "2"
*HW_XG_VOLTAGE_UNIT "kV"
*HW_XG_WATT_MAX "2"
*HW_XG_WATT_UNIT "kW"
*HW_XG_WAVE_LENGTH_ALPHA1 "1.540593"
*HW_XG_WAVE_LENGTH_ALPHA2 "1.544414"
*HW_XG_WAVE_LENGTH_BETA "1.392250"
*MEAS_COND_AXIS_NAME-0 "2θ/θ"
*MEAS_COND_AXIS_NAME-1 "2θ"
*MEAS_COND_AXIS_NAME-2 "ω"
*MEAS_COND_AXIS_NAME-3 "Z"
*MEAS_COND_AXIS_NAME-4 "2θ/ω"
*MEAS_COND_AXIS_NAME-5 "θs"
*MEAS_COND_AXIS_NAME-6 "θd"
*MEAS_COND_AXIS_NAME-7 "Ts"
*MEAS_COND_AXIS_NAME-8 "CBO選択スリット"
*MEAS_COND_AXIS_NAME-9 "M"
*MEAS_COND_AXIS_NAME-10 "入射平行スリット"
*MEAS_COND_AXIS_NAME-11 "入射スリット"
*MEAS_COND_AXIS_NAME-12 ""
*MEAS_COND_AXIS_NAME-13 "Zs"
*MEAS_COND_AXIS_NAME-14 "入射光学素子"
*MEAS_COND_AXIS_NAME-15 "長手制限スリット"
*MEAS_COND_AXIS_NAME-16 "センタースリット"
*MEAS_COND_AXIS_NAME-17 "フィルター"
*MEAS_COND_AXIS_NAME-18 "受光スリット1"
*MEAS_COND_AXIS_NAME-19 "受光スリット2"
*MEAS_COND_AXIS_NAME-20 "受光光学素子"
*MEAS_COND_AXIS_NAME-21 "受光平行スリット"
*MEAS_COND_AXIS_NAME-22 "調整用受光スリット"
*MEAS_COND_AXIS_NAME-23 ""
*MEAS_COND_AXIS_NAME-24 ""
*MEAS_COND_AXIS_NAME-25 "Zd"
*MEAS_COND_AXIS_NAME-26 "アッテネータ"
*MEAS_COND_AXIS_NAME-27 "検出器モノクロメータ"
*MEAS_COND_AXIS_NAME-28 "モノクロメータスリット"
*MEAS_COND_AXIS_NAME-29 "プライマリビーム"
*MEAS_COND_AXIS_NAME-30 "PHA"
*MEAS_COND_AXIS_NAME_INTERNAL-0 "TwoThetaTheta"
*MEAS_COND_AXIS_NAME_INTERNAL-1 "TwoTheta"
*MEAS_COND_AXIS_NAME_INTERNAL-2 "Omega"
*MEAS_COND_AXIS_NAME_INTERNAL-3 "Z"
*MEAS_COND_AXIS_NAME_INTERNAL-4 "TwoThetaOmega"
*MEAS_COND_AXIS_NAME_INTERNAL-5 "ThetaS"
*MEAS_COND_AXIS_NAME_INTERNAL-6 "ThetaD"
*MEAS_COND_AXIS_NAME_INTERNAL-7 "Ts"
*MEAS_COND_AXIS_NAME_INTERNAL-8 "CBO"
*MEAS_COND_AXIS_NAME_INTERNAL-9 "CBO-M"
*MEAS_COND_AXIS_NAME_INTERNAL-10 "IncidentSollerSlit"
*MEAS_COND_AXIS_NAME_INTERNAL-11 "IncidentSlitBox"
*MEAS_COND_AXIS_NAME_INTERNAL-12 "IncidentSlitBox-_Axis"
*MEAS_COND_AXIS_NAME_INTERNAL-13 "Zs"
*MEAS_COND_AXIS_NAME_INTERNAL-14 "IncidentMonochromator"
*MEAS_COND_AXIS_NAME_INTERNAL-15 "IncidentAxdSlit"
*MEAS_COND_AXIS_NAME_INTERNAL-16 "CenterSlit"
*MEAS_COND_AXIS_NAME_INTERNAL-17 "Filter"
*MEAS_COND_AXIS_NAME_INTERNAL-18 "ReceivingSlitBox1"
*MEAS_COND_AXIS_NAME_INTERNAL-19 "ReceivingSlitBox2"
*MEAS_COND_AXIS_NAME_INTERNAL-20 "ReceivingOptics"
*MEAS_COND_AXIS_NAME_INTERNAL-21 "ReceivingSollerSlit"
*MEAS_COND_AXIS_NAME_INTERNAL-22 "ReceivingAxdSlit"
*MEAS_COND_AXIS_NAME_INTERNAL-23 "ReceivingSlitBox1-_Axis"
*MEAS_COND_AXIS_NAME_INTERNAL-24 "ReceivingSlitBox2-_Axis"
*MEAS_COND_AXIS_NAME_INTERNAL-25 "ReceivingSlitBox2-Zd"
*MEAS_COND_AXIS_NAME_INTERNAL-26 "Attenuator"
*MEAS_COND_AXIS_NAME_INTERNAL-27 "CounterMonochromator"
*MEAS_COND_AXIS_NAME_INTERNAL-28 "CounterSlit"
*MEAS_COND_AXIS_NAME_INTERNAL-29 "IncidentPrimary"
*MEAS_COND_AXIS_NAME_INTERNAL-30 "PHA"
*MEAS_COND_AXIS_NAME_MAGICNO-0 "83951616.0000000000"
*MEAS_COND_AXIS_NAME_MAGICNO-1 "268632064.0000000000"
*MEAS_COND_AXIS_NAME_MAGICNO-2 "268500992.0000000000"
*MEAS_COND_AXIS_NAME_MAGICNO-3 "285278208.0000000000"
*MEAS_COND_AXIS_NAME_MAGICNO-4 "83951616.0000000000"
*MEAS_COND_AXIS_NAME_MAGICNO-5 "131072.0000000000"
*MEAS_COND_AXIS_NAME_MAGICNO-6 "131072.0000000000"
*MEAS_COND_AXIS_NAME_MAGICNO-7 "318898176.0000000000"
*MEAS_COND_AXIS_NAME_MAGICNO-8 "20971521.0000000000"
*MEAS_COND_AXIS_NAME_MAGICNO-9 "285343744.0000000000"
*MEAS_COND_AXIS_NAME_MAGICNO-10 "20971521.0000000000"
*MEAS_COND_AXIS_NAME_MAGICNO-11 "22020097.0000000000"
*MEAS_COND_AXIS_NAME_MAGICNO-12 "25165824.0000000000"
*MEAS_COND_AXIS_NAME_MAGICNO-13 "318898176.0000000000"
*MEAS_COND_AXIS_NAME_MAGICNO-14 "1.0000000000"
*MEAS_COND_AXIS_NAME_MAGICNO-15 "20971521.0000000000"
*MEAS_COND_AXIS_NAME_MAGICNO-16 "20971521.0000000000"
*MEAS_COND_AXIS_NAME_MAGICNO-17 "20971521.0000000000"
*MEAS_COND_AXIS_NAME_MAGICNO-18 "23068673.0000000000"
*MEAS_COND_AXIS_NAME_MAGICNO-19 "23068673.0000000000"
*MEAS_COND_AXIS_NAME_MAGICNO-20 "20971521.0000000000"
*MEAS_COND_AXIS_NAME_MAGICNO-21 "20971521.0000000000"
*MEAS_COND_AXIS_NAME_MAGICNO-22 "20971521.0000000000"
*MEAS_COND_AXIS_NAME_MAGICNO-23 "25165824.0000000000"
*MEAS_COND_AXIS_NAME_MAGICNO-24 "25165824.0000000000"
*MEAS_COND_AXIS_NAME_MAGICNO-25 "285343744.0000000000"
*MEAS_COND_AXIS_NAME_MAGICNO-26 "17301505.0000000000"
*MEAS_COND_AXIS_NAME_MAGICNO-27 "20971521.0000000000"
*MEAS_COND_AXIS_NAME_MAGICNO-28 "20971521.0000000000"
*MEAS_COND_AXIS_NAME_MAGICNO-29 "20971521.0000000000"
*MEAS_COND_AXIS_NAME_MAGICNO-30 "0.0000000000"
*MEAS_COND_AXIS_OFFSET-0 "-"
*MEAS_COND_AXIS_OFFSET-1 "-0.1081000000"
*MEAS_COND_AXIS_OFFSET-2 "0.3758000000"
*MEAS_COND_AXIS_OFFSET-3 "-"
*MEAS_COND_AXIS_OFFSET-4 "-"
*MEAS_COND_AXIS_OFFSET-5 "0.3758000000"
*MEAS_COND_AXIS_OFFSET-6 "-0.4839000000"
*MEAS_COND_AXIS_OFFSET-7 "-"
*MEAS_COND_AXIS_OFFSET-8 "-"
*MEAS_COND_AXIS_OFFSET-9 "-"
*MEAS_COND_AXIS_OFFSET-10 "-"
*MEAS_COND_AXIS_OFFSET-11 "-"
*MEAS_COND_AXIS_OFFSET-12 "-"
*MEAS_COND_AXIS_OFFSET-13 "-"
*MEAS_COND_AXIS_OFFSET-14 "-"
*MEAS_COND_AXIS_OFFSET-15 "-"
*MEAS_COND_AXIS_OFFSET-16 "-"
*MEAS_COND_AXIS_OFFSET-17 "-"
*MEAS_COND_AXIS_OFFSET-18 "-"
*MEAS_COND_AXIS_OFFSET-19 "-"
*MEAS_COND_AXIS_OFFSET-20 "-"
*MEAS_COND_AXIS_OFFSET-21 "-"
*MEAS_COND_AXIS_OFFSET-22 "-"
*MEAS_COND_AXIS_OFFSET-23 "-"
*MEAS_COND_AXIS_OFFSET-24 "-"
*MEAS_COND_AXIS_OFFSET-25 "-"
*MEAS_COND_AXIS_OFFSET-26 "-"
*MEAS_COND_AXIS_OFFSET-27 "-"
*MEAS_COND_AXIS_OFFSET-28 "-"
*MEAS_COND_AXIS_OFFSET-29 "-"
*MEAS_COND_AXIS_OFFSET-30 "-"
*MEAS_COND_AXIS_POSITION-0 "0.0000000000"
*MEAS_COND_AXIS_POSITION-1 "0.0000000000"
*MEAS_COND_AXIS_POSITION-2 "0.0000000000"
*MEAS_COND_AXIS_POSITION-3 "-0.5500000000"
*MEAS_COND_AXIS_POSITION-4 "0.0000000000"
*MEAS_COND_AXIS_POSITION-5 "0.0000000000"
*MEAS_COND_AXIS_POSITION-6 "0.0000000000"
*MEAS_COND_AXIS_POSITION-7 "-0.4278800000"
*MEAS_COND_AXIS_POSITION-8 "BB"
*MEAS_COND_AXIS_POSITION-9 "0.0000000000"
*MEAS_COND_AXIS_POSITION-10 "Soller_slit_5.0deg"
*MEAS_COND_AXIS_POSITION-11 "2/3deg"
*MEAS_COND_AXIS_POSITION-12 "2.2088000000"
*MEAS_COND_AXIS_POSITION-13 "-0.4140600000"
*MEAS_COND_AXIS_POSITION-14 "0.0000000000"
*MEAS_COND_AXIS_POSITION-15 "10.0mm"
*MEAS_COND_AXIS_POSITION-16 "None"
*MEAS_COND_AXIS_POSITION-17 "Cu_K-beta"
*MEAS_COND_AXIS_POSITION-18 "13.000mm"
*MEAS_COND_AXIS_POSITION-19 "13.000mm"
*MEAS_COND_AXIS_POSITION-20 "No_unit"
*MEAS_COND_AXIS_POSITION-21 "Soller_slit_5.0deg"
*MEAS_COND_AXIS_POSITION-22 "None"
*MEAS_COND_AXIS_POSITION-23 "13.0000000000"
*MEAS_COND_AXIS_POSITION-24 "13.0000000000"
*MEAS_COND_AXIS_POSITION-25 "0.0109400000"
*MEAS_COND_AXIS_POSITION-26 "Open"
*MEAS_COND_AXIS_POSITION-27 "None"
*MEAS_COND_AXIS_POSITION-28 "None"
*MEAS_COND_AXIS_POSITION-29 "None"
*MEAS_COND_AXIS_POSITION-30 "38.0000000000"
*MEAS_COND_AXIS_UNIT-0 "deg"
*MEAS_COND_AXIS_UNIT-1 "deg"
*MEAS_COND_AXIS_UNIT-2 "deg"
*MEAS_COND_AXIS_UNIT-3 "mm"
*MEAS_COND_AXIS_UNIT-4 "deg"
*MEAS_COND_AXIS_UNIT-5 "deg"
*MEAS_COND_AXIS_UNIT-6 "deg"
*MEAS_COND_AXIS_UNIT-7 "mm"
*MEAS_COND_AXIS_UNIT-8 ""
*MEAS_COND_AXIS_UNIT-9 "pulse"
*MEAS_COND_AXIS_UNIT-10 ""
*MEAS_COND_AXIS_UNIT-11 ""
*MEAS_COND_AXIS_UNIT-12 "mm"
*MEAS_COND_AXIS_UNIT-13 "mm"
*MEAS_COND_AXIS_UNIT-14 ""
*MEAS_COND_AXIS_UNIT-15 ""
*MEAS_COND_AXIS_UNIT-16 ""
*MEAS_COND_AXIS_UNIT-17 ""
*MEAS_COND_AXIS_UNIT-18 ""
*MEAS_COND_AXIS_UNIT-19 ""
*MEAS_COND_AXIS_UNIT-20 ""
*MEAS_COND_AXIS_UNIT-21 ""
*MEAS_COND_AXIS_UNIT-22 ""
*MEAS_COND_AXIS_UNIT-23 "mm"
*MEAS_COND_AXIS_UNIT-24 "mm"
*MEAS_COND_AXIS_UNIT-25 "mm"
*MEAS_COND_AXIS_UNIT-26 ""
*MEAS_COND_AXIS_UNIT-27 ""
*MEAS_COND_AXIS_UNIT-28 ""
*MEAS_COND_AXIS_UNIT-29 ""
*MEAS_COND_AXIS_UNIT-30 "div"
*MEAS_COND_COUNTER_CNTLOSS_CORR "0.0000000000"
*MEAS_COND_COUNTER_PHABASE "38.0000000000"
*MEAS_COND_COUNTER_PHAWINDOW "16.0000000000"
*MEAS_COND_COUNTER_PHA_UNIT "div"
*MEAS_COND_COUNTER_TAUDIFF "30.0000000000"
*MEAS_COND_COUNTER_TAUINT "0.0000000000"
*MEAS_COND_IRRADIATION_MODE "OFF"
*MEAS_COND_IRRADIATION_WIDTH ""
*MEAS_COND_OPT_ATTR "集中法"
*MEAS_COND_OPT_NAME "@集中法"
*MEAS_COND_UNSYMMETRIC_MODE "OFF"
*MEAS_COND_XG_CURRENT "30.0000000000"
*MEAS_COND_XG_VOLTAGE "40.0000000000"
*MEAS_COND_XG_WAVE_TYPE "Ka"
*MEAS_DATA_COUNT "3501.0000000000"
*MEAS_SCAN_AXIS_X "2θ/θ"
*MEAS_SCAN_AXIS_X_INTERNAL "TwoThetaTheta"
*MEAS_SCAN_END_TIME "08/19/20 18:22:25"
*MEAS_SCAN_MODE "CONTINUOUS"
*MEAS_SCAN_MONITOR "0"
*MEAS_SCAN_RESOLUTION_X "0.0002"
*MEAS_SCAN_SPEED "1.0"
*MEAS_SCAN_SPEED_UNIT "deg/min"
*MEAS_SCAN_START "20.0000000000"
*MEAS_SCAN_START_TIME "08/19/20 17:09:32"
*MEAS_SCAN_STEP "0.0200000000"
*MEAS_SCAN_STOP "90.0000000000"
*MEAS_SCAN_UNIT_X "deg"
*MEAS_SCAN_UNIT_Y "counts"
*RAS_HEADER_END
*RAS_INT_START
20.0000 9345.0000 1.0000
20.0200 9206.0000 1.0000
20.0400 9343.0000 1.0000
20.0600 9243.0000 1.0000
20.0800 9291.0000 1.0000
20.1000 9287.0000 1.0000
20.1200 9334.0000 1.0000
20.1400 9109.0000 1.0000
20.1600 9236.0000 1.0000
20.1800 9103.0000 1.0000
20.2000 9282.0000 1.0000
20.2200 9282.0000 1.0000
20.2400 9185.0000 1.0000
20.2600 9189.0000 1.0000
20.2800 9383.0000 1.0000
20.3000 9173.0000 1.0000
20.3200 9315.0000 1.0000
20.3400 9327.0000 1.0000
20.3600 9360.0000 1.0000
20.3800 9265.0000 1.0000
20.4000 9429.0000 1.0000
20.4200 9209.0000 1.0000
20.4400 9373.0000 1.0000
20.4600 9435.0000 1.0000
20.4800 9479.0000 1.0000
20.5000 9294.0000 1.0000
20.5200 9256.0000 1.0000
20.5400 9580.0000 1.0000
20.5600 9588.0000 1.0000
20.5800 9786.0000 1.0000
20.6000 9802.0000 1.0000
20.6200 10054.0000 1.0000
20.6400 10234.0000 1.0000
20.6600 10567.0000 1.0000
20.6800 11039.0000 1.0000
20.7000 10981.0000 1.0000
20.7200 11406.0000 1.0000
20.7400 11674.0000 1.0000
20.7600 12225.0000 1.0000
20.7800 13133.0000 1.0000
20.8000 14767.0000 1.0000
20.8200 17917.0000 1.0000
20.8400 22845.0000 1.0000
20.8600 25337.0000 1.0000
20.8800 26046.0000 1.0000
20.9000 24317.0000 1.0000
20.9200 20064.0000 1.0000
20.9400 16238.0000 1.0000
20.9600 13757.0000 1.0000
20.9800 11407.0000 1.0000
21.0000 10389.0000 1.0000
21.0200 9939.0000 1.0000
21.0400 9981.0000 1.0000
21.0600 9719.0000 1.0000
21.0800 9441.0000 1.0000
21.1000 9479.0000 1.0000
21.1200 9369.0000 1.0000
21.1400 9181.0000 1.0000
21.1600 9158.0000 1.0000
21.1800 9356.0000 1.0000
21.2000 9434.0000 1.0000
21.2200 9408.0000 1.0000
21.2400 9172.0000 1.0000
21.2600 9303.0000 1.0000
21.2800 9234.0000 1.0000
21.3000 9198.0000 1.0000
21.3200 9347.0000 1.0000
21.3400 9222.0000 1.0000
21.3600 9229.0000 1.0000
21.3800 9326.0000 1.0000
21.4000 9221.0000 1.0000
21.4200 9224.0000 1.0000
21.4400 9301.0000 1.0000
21.4600 9286.0000 1.0000
21.4800 9129.0000 1.0000
21.5000 9381.0000 1.0000
21.5200 9152.0000 1.0000
21.5400 9134.0000 1.0000
21.5600 9232.0000 1.0000
21.5800 9178.0000 1.0000
21.6000 9204.0000 1.0000
21.6200 9243.0000 1.0000
21.6400 9264.0000 1.0000
21.6600 9085.0000 1.0000
21.6800 9154.0000 1.0000
21.7000 9118.0000 1.0000
21.7200 9255.0000 1.0000
21.7400 9447.0000 1.0000
21.7600 9169.0000 1.0000
21.7800 9278.0000 1.0000
21.8000 9149.0000 1.0000
21.8200 9189.0000 1.0000
21.8400 9233.0000 1.0000
21.8600 9116.0000 1.0000
21.8800 8955.0000 1.0000
21.9000 9277.0000 1.0000
21.9200 9368.0000 1.0000
21.9400 9201.0000 1.0000
21.9600 9177.0000 1.0000
21.9800 9268.0000 1.0000
22.0000 9151.0000 1.0000
22.0200 9028.0000 1.0000
22.0400 9073.0000 1.0000
22.0600 9029.0000 1.0000
22.0800 9082.0000 1.0000
22.1000 9362.0000 1.0000
22.1200 9165.0000 1.0000
22.1400 9247.0000 1.0000
22.1600 8963.0000 1.0000
22.1800 9306.0000 1.0000
22.2000 9149.0000 1.0000
22.2200 9221.0000 1.0000
22.2400 9212.0000 1.0000
22.2600 9018.0000 1.0000
22.2800 9047.0000 1.0000
22.3000 9023.0000 1.0000
22.3200 9088.0000 1.0000
22.3400 9162.0000 1.0000
22.3600 9003.0000 1.0000
22.3800 9272.0000 1.0000
22.4000 9161.0000 1.0000
22.4200 9088.0000 1.0000
22.4400 9183.0000 1.0000
22.4600 9103.0000 1.0000
22.4800 9091.0000 1.0000
22.5000 9090.0000 1.0000
22.5200 9220.0000 1.0000
22.5400 9088.0000 1.0000
22.5600 9110.0000 1.0000
22.5800 9151.0000 1.0000
22.6000 9112.0000 1.0000
22.6200 8989.0000 1.0000
22.6400 9099.0000 1.0000
22.6600 9041.0000 1.0000
22.6800 9105.0000 1.0000
22.7000 9097.0000 1.0000
22.7200 8922.0000 1.0000
22.7400 8948.0000 1.0000
22.7600 8996.0000 1.0000
22.7800 9140.0000 1.0000
22.8000 9064.0000 1.0000
22.8200 9086.0000 1.0000
22.8400 8964.0000 1.0000
22.8600 9031.0000 1.0000
22.8800 9053.0000 1.0000
22.9000 9233.0000 1.0000
22.9200 9204.0000 1.0000
22.9400 8869.0000 1.0000
22.9600 9008.0000 1.0000
22.9800 9147.0000 1.0000
23.0000 9039.0000 1.0000
23.0200 9109.0000 1.0000
23.0400 9034.0000 1.0000
23.0600 9089.0000 1.0000
23.0800 9082.0000 1.0000
23.1000 9098.0000 1.0000
23.1200 8898.0000 1.0000
23.1400 8966.0000 1.0000
23.1600 9001.0000 1.0000
23.1800 9099.0000 1.0000
23.2000 9030.0000 1.0000
23.2200 9007.0000 1.0000
23.2400 9021.0000 1.0000
23.2600 9021.0000 1.0000
23.2800 9030.0000 1.0000
23.3000 8887.0000 1.0000
23.3200 9065.0000 1.0000
23.3400 9186.0000 1.0000
23.3600 8963.0000 1.0000
23.3800 9036.0000 1.0000
23.4000 9154.0000 1.0000
23.4200 9028.0000 1.0000
23.4400 9123.0000 1.0000
23.4600 8987.0000 1.0000
23.4800 9005.0000 1.0000
23.5000 9055.0000 1.0000
23.5200 9023.0000 1.0000
23.5400 9035.0000 1.0000
23.5600 9036.0000 1.0000
23.5800 9080.0000 1.0000
23.6000 8975.0000 1.0000
23.6200 9030.0000 1.0000
23.6400 9087.0000 1.0000
23.6600 9007.0000 1.0000
23.6800 8934.0000 1.0000
23.7000 9122.0000 1.0000
23.7200 9017.0000 1.0000
23.7400 9009.0000 1.0000
23.7600 9041.0000 1.0000
23.7800 8882.0000 1.0000
23.8000 9124.0000 1.0000
23.8200 9128.0000 1.0000
23.8400 9169.0000 1.0000
23.8600 9141.0000 1.0000
23.8800 9273.0000 1.0000
23.9000 9447.0000 1.0000
23.9200 9481.0000 1.0000
23.9400 9611.0000 1.0000
23.9600 9902.0000 1.0000
23.9800 9919.0000 1.0000
24.0000 10408.0000 1.0000
24.0200 10464.0000 1.0000
24.0400 11092.0000 1.0000
24.0600 11104.0000 1.0000
24.0800 11325.0000 1.0000
24.1000 11889.0000 1.0000
24.1200 12701.0000 1.0000
24.1400 13406.0000 1.0000
24.1600 13686.0000 1.0000
24.1800 13643.0000 1.0000
24.2000 12599.0000 1.0000
24.2200 12055.0000 1.0000
24.2400 11539.0000 1.0000
24.2600 10607.0000 1.0000
24.2800 10153.0000 1.0000
24.3000 9626.0000 1.0000
24.3200 9253.0000 1.0000
24.3400 9538.0000 1.0000
24.3600 9084.0000 1.0000
24.3800 9172.0000 1.0000
24.4000 9087.0000 1.0000
24.4200 9026.0000 1.0000
24.4400 8997.0000 1.0000
24.4600 8864.0000 1.0000
24.4800 8863.0000 1.0000
24.5000 8931.0000 1.0000
24.5200 8920.0000 1.0000
24.5400 8872.0000 1.0000
24.5600 8885.0000 1.0000
24.5800 8918.0000 1.0000
24.6000 8894.0000 1.0000
24.6200 8898.0000 1.0000
24.6400 9068.0000 1.0000
24.6600 8853.0000 1.0000
24.6800 8753.0000 1.0000
24.7000 8831.0000 1.0000
24.7200 8811.0000 1.0000
24.7400 9091.0000 1.0000
24.7600 8731.0000 1.0000
24.7800 8810.0000 1.0000
24.8000 8731.0000 1.0000
24.8200 8784.0000 1.0000
24.8400 8863.0000 1.0000
24.8600 8861.0000 1.0000
24.8800 8983.0000 1.0000
24.9000 8875.0000 1.0000
24.9200 8571.0000 1.0000
24.9400 8851.0000 1.0000
24.9600 8975.0000 1.0000
24.9800 8608.0000 1.0000
25.0000 8679.0000 1.0000
25.0200 8699.0000 1.0000
25.0400 8824.0000 1.0000
25.0600 8822.0000 1.0000
25.0800 8786.0000 1.0000
25.1000 8685.0000 1.0000
25.1200 8793.0000 1.0000
25.1400 8779.0000 1.0000
25.1600 8644.0000 1.0000
25.1800 8695.0000 1.0000
25.2000 8882.0000 1.0000
25.2200 8867.0000 1.0000
25.2400 8867.0000 1.0000
25.2600 8984.0000 1.0000
25.2800 8921.0000 1.0000
25.3000 8762.0000 1.0000
25.3200 8989.0000 1.0000
25.3400 8967.0000 1.0000
25.3600 8923.0000 1.0000
25.3800 8967.0000 1.0000
25.4000 8994.0000 1.0000
25.4200 9080.0000 1.0000
25.4400 9049.0000 1.0000
25.4600 9211.0000 1.0000
25.4800 9405.0000 1.0000
25.5000 9631.0000 1.0000
25.5200 9653.0000 1.0000
25.5400 9851.0000 1.0000
25.5600 10123.0000 1.0000
25.5800 10285.0000 1.0000
25.6000 10272.0000 1.0000
25.6200 9804.0000 1.0000
25.6400 9802.0000 1.0000
25.6600 9642.0000 1.0000
25.6800 9464.0000 1.0000
25.7000 9435.0000 1.0000
25.7200 9244.0000 1.0000
25.7400 9262.0000 1.0000
25.7600 9187.0000 1.0000
25.7800 9090.0000 1.0000
25.8000 9049.0000 1.0000
25.8200 9258.0000 1.0000
25.8400 9022.0000 1.0000
25.8600 9057.0000 1.0000
25.8800 9190.0000 1.0000
25.9000 9080.0000 1.0000
25.9200 9012.0000 1.0000
25.9400 8954.0000 1.0000
25.9600 9004.0000 1.0000
25.9800 9089.0000 1.0000
26.0000 8907.0000 1.0000
26.0200 9020.0000 1.0000
26.0400 9251.0000 1.0000
26.0600 9011.0000 1.0000
26.0800 9170.0000 1.0000
26.1000 8865.0000 1.0000
26.1200 9012.0000 1.0000
26.1400 8934.0000 1.0000
26.1600 9085.0000 1.0000
26.1800 9160.0000 1.0000
26.2000 9194.0000 1.0000
26.2200 9277.0000 1.0000
26.2400 9295.0000 1.0000
26.2600 9422.0000 1.0000
26.2800 9525.0000 1.0000
26.3000 9793.0000 1.0000
