*RAS_DATA_START
*RAS_HEADER_START
*DISP_FMT_X "%.2f"
*DISP_FMT_Y "%.0f"
*DISP_FULLSCALE "28381.0000000000"
*DISP_LINE_COLOR "255.0000000000"
*DISP_LINE_STYLE "0.0000000000"
*DISP_LINE_WIDTH "0.2500000000"
*DISP_NOTE "測定データ-2"
*DISP_OFFSET_Y "0.0000000000"
*DISP_PEAKSEARCH_UNIT_Y "cps"
*DISP_RANGE_BOTTOM "0.0000000000"
*DISP_RANGE_LEFT "20.0000000000"
*DISP_RANGE_LOGCUTOFF "0.0100000000"
*DISP_RANGE_RIGHT "90.0000000000"
*DISP_RANGE_TOP "28381.0000000000"
*DISP_SCALE_MODE_Y "0.0000000000"
*DISP_TAB_NAME "2θ/θ"
*DISP_TITLE_Y "強度"
*DISP_UNIT_Y "cps"
*DISP_WINDOW_NAME "MSG_MACROENGINE"
*FILE_COMMENT " "
*FILE_MD5 ""
*FILE_MEMO " "
*FILE_OPERATOR "Administrator"
*FILE_SAMPLE " "
*FILE_TYPE "RAS_RAW"
*FILE_USERGROUP "システムマネージャ"
*FILE_VERSION "1.0000000000"
*HW_ATTACHMENT_ID "ATT0025"
*HW_ATTACHMENT_NAME "標準|Standard"
*HW_COUNTER_ID-0 "CUT0025"
*HW_COUNTER_ID-1 "CUT0020"
*HW_COUNTER_ID-2 "CUT0020"
*HW_COUNTER_ID-3 "CSL0021"
*HW_COUNTER_ID-4 "CMC0021"
*HW_COUNTER_NAME-0 "D/teX Ultra|D/teX Ultra"
*HW_COUNTER_NAME-1 "None|None"
*HW_COUNTER_NAME-2 "None|None"
*HW_COUNTER_NAME-3 "BBM|BBM"
*HW_COUNTER_NAME-4 "検出器モノクロメータ|Detector monochromator"
*HW_COUNTER_SELECT_NAME "D/teX Ultra|D/teX Ultra"
*HW_GONIOMETER_ID "GON0023"
*HW_GONIOMETER_NAME "SmartLab|SmartLab"
*HW_GONIOMETER_RADIUS-0 "90.0"
*HW_GONIOMETER_RADIUS-1 "114.0"
*HW_GONIOMETER_RADIUS-2 "190.0"
*HW_GONIOMETER_RADIUS-3 "300.0"
*HW_GONIOMETER_RADIUS-4 "187.0"
*HW_GONIOMETER_RADIUS-5 "300.0"
*HW_GONIOMETER_RADIUS-6 "113.0"
*HW_GONIOMETER_RADIUS-7 "331.0"
*HW_I_OPT_ID-0 "CBO0021"
*HW_I_OPT_ID-1 "ICR0023"
*HW_I_OPT_ID-2 "ISL0021"
*HW_I_OPT_ID-3 "ISO0021"
*HW_I_OPT_ID-4 "IAD0021"
*HW_I_OPT_ID-5 "IPR0001"
*HW_I_OPT_NAME-0 "CBOユニット|CBO unit"
*HW_I_OPT_NAME-1 "標準入射光学ユニット|Standard incident optical unit"
*HW_I_OPT_NAME-2 "標準入射スリットボックス|Standard incident slit box"
*HW_I_OPT_NAME-3 "入射平行スリット|Incident parallel slit"
*HW_I_OPT_NAME-4 "長手制限スリット|Length limiting slit"
*HW_I_OPT_NAME-5 "None|None"
*HW_R_ATTENUATER_AUTOMODE "0"
*HW_R_OPT_ID-0 "RSS0021"
*HW_R_OPT_ID-1 "RCR0023"
*HW_R_OPT_ID-2 "RSO0021"
*HW_R_OPT_ID-3 "RRS0021"
*HW_R_OPT_ID-4 "ATN0021"
*HW_R_OPT_ID-5 "RFL0021"
*HW_R_OPT_ID-6 "RAD0021"
*HW_R_OPT_NAME-0 "標準受光スリットボックス1|Standard receiving slit box # 1"
*HW_R_OPT_NAME-1 "標準受光光学ユニット1|Standard receiving unit # 1"
*HW_R_OPT_NAME-2 "標準受光光学ユニット2|Standard receiving optical unit # 2"
*HW_R_OPT_NAME-3 "標準受光スリットボックス2|Standard receiving slit box # 2"
*HW_R_OPT_NAME-4 "標準アッテネータ|Standard Attenuator"
*HW_R_OPT_NAME-5 "Cu Kβ|Cu K-beta"
*HW_R_OPT_NAME-6 "調整用受光スリット|Alignment receiving slit"
*HW_SAMPLE_HOLDER_ID "SMP0023"
*HW_SAMPLE_HOLDER_NAME "標準Zステージ|Standard Z stage"
*HW_XG_CURRENT_MAX "50"
*HW_XG_CURRENT_MIN "2"
*HW_XG_CURRENT_RESOLUTION "2"
*HW_XG_CURRENT_UNIT "mA"
*HW_XG_FOCUS "1mm x 10mm"
*HW_XG_FOCUS_TYPE "Normal"
*HW_XG_ID ""
*HW_XG_NAME "3kW 封入管(ID:1200)|3kW Sealed tube(ID:1200)"
*HW_XG_TARGET_ATOMIC_NUMBER "29.0000000000"
*HW_XG_TARGET_NAME "Cu"
*HW_XG_TYPE "Hermetic"
*HW_XG_VOLTAGE_MAX "60"
*HW_XG_VOLTAGE_MIN "20"
*HW_XG_VOLTAGE_RESOLUTION "2"
*HW_XG_VOLTAGE_UNIT "kV"
*HW_XG_WATT_MAX "2"
*HW_XG_WATT_UNIT "kW"
*HW_XG_WAVE_LENGTH_ALPHA1 "1.540593"
*HW_XG_WAVE_LENGTH_ALPHA2 "1.544414"
*HW_XG_WAVE_LENGTH_BETA "1.392250"
*MEAS_COND_AXIS_NAME-0 "2θ/θ"
*MEAS_COND_AXIS_NAME-1 "2θ"
*MEAS_COND_AXIS_NAME-2 "ω"
*MEAS_COND_AXIS_NAME-3 "Z"
*MEAS_COND_AXIS_NAME-4 "2θ/ω"
*MEAS_COND_AXIS_NAME-5 "θs"
*MEAS_COND_AXIS_NAME-6 "θd"
*MEAS_COND_AXIS_NAME-7 "Ts"
*MEAS_COND_AXIS_NAME-8 "CBO選択スリット"
*MEAS_COND_AXIS_NAME-9 "M"
*MEAS_COND_AXIS_NAME-10 "入射平行スリット"
*MEAS_COND_AXIS_NAME-11 "入射スリット"
*MEAS_COND_AXIS_NAME-12 ""
*MEAS_COND_AXIS_NAME-13 "Zs"
*MEAS_COND_AXIS_NAME-14 "入射光学素子"
*MEAS_COND_AXIS_NAME-15 "長手制限スリット"
*MEAS_COND_AXIS_NAME-16 "センタースリット"
*MEAS_COND_AXIS_NAME-17 "フィルター"
*MEAS_COND_AXIS_NAME-18 "受光スリット1"
*MEAS_COND_AXIS_NAME-19 "受光スリット2"
*MEAS_COND_AXIS_NAME-20 "受光光学素子"
*MEAS_COND_AXIS_NAME-21 "受光平行スリット"
*MEAS_COND_AXIS_NAME-22 "調整用受光スリット"
*MEAS_COND_AXIS_NAME-23 ""
*MEAS_COND_AXIS_NAME-24 ""
*MEAS_COND_AXIS_NAME-25 "Zd"
*MEAS_COND_AXIS_NAME-26 "アッテネータ"
*MEAS_COND_AXIS_NAME-27 "検出器モノクロメータ"
*MEAS_COND_AXIS_NAME-28 "モノクロメータスリット"
*MEAS_COND_AXIS_NAME-29 "プライマリビーム"
*MEAS_COND_AXIS_NAME-30 "PHA"
*MEAS_COND_AXIS_NAME_INTERNAL-0 "TwoThetaTheta"
*MEAS_COND_AXIS_NAME_INTERNAL-1 "TwoTheta"
*MEAS_COND_AXIS_NAME_INTERNAL-2 "Omega"
*MEAS_COND_AXIS_NAME_INTERNAL-3 "Z"
*MEAS_COND_AXIS_NAME_INTERNAL-4 "TwoThetaOmega"
*MEAS_COND_AXIS_NAME_INTERNAL-5 "ThetaS"
*MEAS_COND_AXIS_NAME_INTERNAL-6 "ThetaD"
*MEAS_COND_AXIS_NAME_INTERNAL-7 "Ts"
*MEAS_COND_AXIS_NAME_INTERNAL-8 "CBO"
*MEAS_COND_AXIS_NAME_INTERNAL-9 "CBO-M"
*MEAS_COND_AXIS_NAME_INTERNAL-10 "IncidentSollerSlit"
*MEAS_COND_AXIS_NAME_INTERNAL-11 "IncidentSlitBox"
*MEAS_COND_AXIS_NAME_INTERNAL-12 "IncidentSlitBox-_Axis"
*MEAS_COND_AXIS_NAME_INTERNAL-13 "Zs"
*MEAS_COND_AXIS_NAME_INTERNAL-14 "IncidentMonochromator"
*MEAS_COND_AXIS_NAME_INTERNAL-15 "IncidentAxdSlit"
*MEAS_COND_AXIS_NAME_INTERNAL-16 "CenterSlit"
*MEAS_COND_AXIS_NAME_INTERNAL-17 "Filter"
*MEAS_COND_AXIS_NAME_INTERNAL-18 "ReceivingSlitBox1"
*MEAS_COND_AXIS_NAME_INTERNAL-19 "ReceivingSlitBox2"
*MEAS_COND_AXIS_NAME_INTERNAL-20 "ReceivingOptics"
*MEAS_COND_AXIS_NAME_INTERNAL-21 "ReceivingSollerSlit"
*MEAS_COND_AXIS_NAME_INTERNAL-22 "ReceivingAxdSlit"
*MEAS_COND_AXIS_NAME_INTERNAL-23 "ReceivingSlitBox1-_Axis"
*MEAS_COND_AXIS_NAME_INTERNAL-24 "ReceivingSlitBox2-_Axis"
*MEAS_COND_AXIS_NAME_INTERNAL-25 "ReceivingSlitBox2-Zd"
*MEAS_COND_AXIS_NAME_INTERNAL-26 "Attenuator"
*MEAS_COND_AXIS_NAME_INTERNAL-27 "CounterMonochromator"
*MEAS_COND_AXIS_NAME_INTERNAL-28 "CounterSlit"
*MEAS_COND_AXIS_NAME_INTERNAL-29 "IncidentPrimary"
*MEAS_COND_AXIS_NAME_INTERNAL-30 "PHA"
*MEAS_COND_AXIS_NAME_MAGICNO-0 "83951616.0000000000"
*MEAS_COND_AXIS_NAME_MAGICNO-1 "268632064.0000000000"
*MEAS_COND_AXIS_NAME_MAGICNO-2 "268500992.0000000000"
*MEAS_COND_AXIS_NAME_MAGICNO-3 "285278208.0000000000"
*MEAS_COND_AXIS_NAME_MAGICNO-4 "83951616.0000000000"
*MEAS_COND_AXIS_NAME_MAGICNO-5 "131072.0000000000"
*MEAS_COND_AXIS_NAME_MAGICNO-6 "131072.0000000000"
*MEAS_COND_AXIS_NAME_MAGICNO-7 "318898176.0000000000"
*MEAS_COND_AXIS_NAME_MAGICNO-8 "20971521.0000000000"
*MEAS_COND_AXIS_NAME_MAGICNO-9 "285343744.0000000000"
*MEAS_COND_AXIS_NAME_MAGICNO-10 "20971521.0000000000"
*MEAS_COND_AXIS_NAME_MAGICNO-11 "22020097.0000000000"
*MEAS_COND_AXIS_NAME_MAGICNO-12 "25165824.0000000000"
*MEAS_COND_AXIS_NAME_MAGICNO-13 "318898176.0000000000"
*MEAS_COND_AXIS_NAME_MAGICNO-14 "1.0000000000"
*MEAS_COND_AXIS_NAME_MAGICNO-15 "20971521.0000000000"
*MEAS_COND_AXIS_NAME_MAGICNO-16 "20971521.0000000000"
*MEAS_COND_AXIS_NAME_MAGICNO-17 "20971521.0000000000"
*MEAS_COND_AXIS_NAME_MAGICNO-18 "23068673.0000000000"
*MEAS_COND_AXIS_NAME_MAGICNO-19 "23068673.0000000000"
*MEAS_COND_AXIS_NAME_MAGICNO-20 "20971521.0000000000"
*MEAS_COND_AXIS_NAME_MAGICNO-21 "20971521.0000000000"
*MEAS_COND_AXIS_NAME_MAGICNO-22 "20971521.0000000000"
*MEAS_COND_AXIS_NAME_MAGICNO-23 "25165824.0000000000"
*MEAS_COND_AXIS_NAME_MAGICNO-24 "25165824.0000000000"
*MEAS_COND_AXIS_NAME_MAGICNO-25 "285343744.0000000000"
*MEAS_COND_AXIS_NAME_MAGICNO-26 "17301505.0000000000"
*MEAS_COND_AXIS_NAME_MAGICNO-27 "20971521.0000000000"
*MEAS_COND_AXIS_NAME_MAGICNO-28 "20971521.0000000000"
*MEAS_COND_AXIS_NAME_MAGICNO-29 "20971521.0000000000"
*MEAS_COND_AXIS_NAME_MAGICNO-30 "0.0000000000"
*MEAS_COND_AXIS_OFFSET-0 "-"
*MEAS_COND_AXIS_OFFSET-1 "-0.1081000000"
*MEAS_COND_AXIS_OFFSET-2 "0.3758000000"
*MEAS_COND_AXIS_OFFSET-3 "-"
*MEAS_COND_AXIS_OFFSET-4 "-"
*MEAS_COND_AXIS_OFFSET-5 "0.3758000000"
*MEAS_COND_AXIS_OFFSET-6 "-0.4839000000"
*MEAS_COND_AXIS_OFFSET-7 "-"
*MEAS_COND_AXIS_OFFSET-8 "-"
*MEAS_COND_AXIS_OFFSET-9 "-"
*MEAS_COND_AXIS_OFFSET-10 "-"
*MEAS_COND_AXIS_OFFSET-11 "-"
*MEAS_COND_AXIS_OFFSET-12 "-"
*MEAS_COND_AXIS_OFFSET-13 "-"
*MEAS_COND_AXIS_OFFSET-14 "-"
*MEAS_COND_AXIS_OFFSET-15 "-"
*MEAS_COND_AXIS_OFFSET-16 "-"
*MEAS_COND_AXIS_OFFSET-17 "-"
*MEAS_COND_AXIS_OFFSET-18 "-"
*MEAS_COND_AXIS_OFFSET-19 "-"
*MEAS_COND_AXIS_OFFSET-20 "-"
*MEAS_COND_AXIS_OFFSET-21 "-"
*MEAS_COND_AXIS_OFFSET-22 "-"
*MEAS_COND_AXIS_OFFSET-23 "-"
*MEAS_COND_AXIS_OFFSET-24 "-"
*MEAS_COND_AXIS_OFFSET-25 "-"
*MEAS_COND_AXIS_OFFSET-26 "-"
*MEAS_COND_AXIS_OFFSET-27 "-"
*MEAS_COND_AXIS_OFFSET-28 "-"
*MEAS_COND_AXIS_OFFSET-29 "-"
*MEAS_COND_AXIS_OFFSET-30 "-"
*MEAS_COND_AXIS_POSITION-0 "0.0000000000"
*MEAS_COND_AXIS_POSITION-1 "0.0000000000"
*MEAS_COND_AXIS_POSITION-2 "0.0000000000"
*MEAS_COND_AXIS_POSITION-3 "-0.5500000000"
*MEAS_COND_AXIS_POSITION-4 "0.0000000000"
*MEAS_COND_AXIS_POSITION-5 "0.0000000000"
*MEAS_COND_AXIS_POSITION-6 "0.0000000000"
*MEAS_COND_AXIS_POSITION-7 "-0.4278800000"
*MEAS_COND_AXIS_POSITION-8 "BB"
*MEAS_COND_AXIS_POSITION-9 "0.0000000000"
*MEAS_COND_AXIS_POSITION-10 "Soller_slit_5.0deg"
*MEAS_COND_AXIS_POSITION-11 "2/3deg"
*MEAS_COND_AXIS_POSITION-12 "2.2088000000"
*MEAS_COND_AXIS_POSITION-13 "-0.4140600000"
*MEAS_COND_AXIS_POSITION-14 "0.0000000000"
*MEAS_COND_AXIS_POSITION-15 "10.0mm"
*MEAS_COND_AXIS_POSITION-16 "None"
*MEAS_COND_AXIS_POSITION-17 "Cu_K-beta"
*MEAS_COND_AXIS_POSITION-18 "13.000mm"
*MEAS_COND_AXIS_POSITION-19 "13.000mm"
*MEAS_COND_AXIS_POSITION-20 "No_unit"
*MEAS_COND_AXIS_POSITION-21 "Soller_slit_5.0deg"
*MEAS_COND_AXIS_POSITION-22 "None"
*MEAS_COND_AXIS_POSITION-23 "13.0000000000"
*MEAS_COND_AXIS_POSITION-24 "13.0000000000"
*MEAS_COND_AXIS_POSITION-25 "0.0109400000"
*MEAS_COND_AXIS_POSITION-26 "Open"
*MEAS_COND_AXIS_POSITION-27 "None"
*MEAS_COND_AXIS_POSITION-28 "None"
*MEAS_COND_AXIS_POSITION-29 "None"
*MEAS_COND_AXIS_POSITION-30 "38.0000000000"
*MEAS_COND_AXIS_UNIT-0 "deg"
*MEAS_COND_AXIS_UNIT-1 "deg"
*MEAS_COND_AXIS_UNIT-2 "deg"
*MEAS_COND_AXIS_UNIT-3 "mm"
*MEAS_COND_AXIS_UNIT-4 "deg"
*MEAS_COND_AXIS_UNIT-5 "deg"
*MEAS_COND_AXIS_UNIT-6 "deg"
*MEAS_COND_AXIS_UNIT-7 "mm"
*MEAS_COND_AXIS_UNIT-8 ""
*MEAS_COND_AXIS_UNIT-9 "pulse"
*MEAS_COND_AXIS_UNIT-10 ""
*MEAS_COND_AXIS_UNIT-11 ""
*MEAS_COND_AXIS_UNIT-12 "mm"
*MEAS_COND_AXIS_UNIT-13 "mm"
*MEAS_COND_AXIS_UNIT-14 ""
*MEAS_COND_AXIS_UNIT-15 ""
*MEAS_COND_AXIS_UNIT-16 ""
*MEAS_COND_AXIS_UNIT-17 ""
*MEAS_COND_AXIS_UNIT-18 ""
*MEAS_COND_AXIS_UNIT-19 ""
*MEAS_COND_AXIS_UNIT-20 ""
*MEAS_COND_AXIS_UNIT-21 ""
*MEAS_COND_AXIS_UNIT-22 ""
*MEAS_COND_AXIS_UNIT-23 "mm"
*MEAS_COND_AXIS_UNIT-24 "mm"
*MEAS_COND_AXIS_UNIT-25 "mm"
*MEAS_COND_AXIS_UNIT-26 ""
*MEAS_COND_AXIS_UNIT-27 ""
*MEAS_COND_AXIS_UNIT-28 ""
*MEAS_COND_AXIS_UNIT-29 ""
*MEAS_COND_AXIS_UNIT-30 "div"
*MEAS_COND_COUNTER_CNTLOSS_CORR "0.0000000000"
*MEAS_COND_COUNTER_PHABASE "38.0000000000"
*MEAS_COND_COUNTER_PHAWINDOW "16.0000000000"
*MEAS_COND_COUNTER_PHA_UNIT "div"
*MEAS_COND_COUNTER_TAUDIFF "30.0000000000"
*MEAS_COND_COUNTER_TAUINT "0.0000000000"
*MEAS_COND_IRRADIATION_MODE "OFF"
*MEAS_COND_IRRADIATION_WIDTH ""
*MEAS_COND_OPT_ATTR "集中法"
*MEAS_COND_OPT_NAME "@集中法"
*MEAS_COND_UNSYMMETRIC_MODE "OFF"
*MEAS_COND_XG_CURRENT "30.0000000000"
*MEAS_COND_XG_VOLTAGE "40.0000000000"
*MEAS_COND_XG_WAVE_TYPE "Ka"
*MEAS_DATA_COUNT "3501.0000000000"
*MEAS_SCAN_AXIS_X "2θ/θ"
*MEAS_SCAN_AXIS_X_INTERNAL "TwoThetaTheta"
*MEAS_SCAN_END_TIME "09/18/20 15:03:28"
*MEAS_SCAN_MODE "CONTINUOUS"
*MEAS_SCAN_MONITOR "0"
*MEAS_SCAN_RESOLUTION_X "0.0002"
*MEAS_SCAN_SPEED "1.0"
*MEAS_SCAN_SPEED_UNIT "deg/min"
*MEAS_SCAN_START "20.0000000000"
*MEAS_SCAN_START_TIME "09/18/20 13:50:34"
*MEAS_SCAN_STEP "0.0200000000"
*MEAS_SCAN_STOP "90.0000000000"
*MEAS_SCAN_UNIT_X "deg"
*MEAS_SCAN_UNIT_Y "counts"
*RAS_HEADER_END
*RAS_INT_START
20.0000 13449.0000 1.0000
20.0200 13935.0000 1.0000
20.0400 14112.0000 1.0000
20.0600 13991.0000 1.0000
20.0800 13953.0000 1.0000
20.1000 13924.0000 1.0000
20.1200 14021.0000 1.0000
20.1400 13762.0000 1.0000
20.1600 14086.0000 1.0000
20.1800 13916.0000 1.0000
20.2000 14153.0000 1.0000
20.2200 14208.0000 1.0000
20.2400 14130.0000 1.0000
20.2600 14146.0000 1.0000
20.2800 14134.0000 1.0000
20.3000 13952.0000 1.0000
20.3200 14087.0000 1.0000
20.3400 13900.0000 1.0000
20.3600 13870.0000 1.0000
20.3800 13969.0000 1.0000
20.4000 14305.0000 1.0000
20.4200 14387.0000 1.0000
20.4400 14065.0000 1.0000
20.4600 14091.0000 1.0000
20.4800 14052.0000 1.0000
20.5000 14026.0000 1.0000
20.5200 13955.0000 1.0000
20.5400 13928.0000 1.0000
20.5600 14150.0000 1.0000
20.5800 14183.0000 1.0000
20.6000 14133.0000 1.0000
20.6200 14059.0000 1.0000
20.6400 14224.0000 1.0000
20.6600 13897.0000 1.0000
20.6800 14084.0000 1.0000
20.7000 14145.0000 1.0000
20.7200 14136.0000 1.0000
20.7400 14197.0000 1.0000
20.7600 14331.0000 1.0000
20.7800 14349.0000 1.0000
20.8000 14172.0000 1.0000
20.8200 14099.0000 1.0000
20.8400 14535.0000 1.0000
20.8600 14937.0000 1.0000
20.8800 14837.0000 1.0000
20.9000 14500.0000 1.0000
20.9200 14633.0000 1.0000
20.9400 14397.0000 1.0000
20.9600 14375.0000 1.0000
20.9800 14224.0000 1.0000
21.0000 14043.0000 1.0000
21.0200 14082.0000 1.0000
21.0400 14245.0000 1.0000
21.0600 14163.0000 1.0000
21.0800 13900.0000 1.0000
21.1000 14113.0000 1.0000
21.1200 14068.0000 1.0000
21.1400 13993.0000 1.0000
21.1600 14279.0000 1.0000
21.1800 14148.0000 1.0000
21.2000 14095.0000 1.0000
21.2200 14105.0000 1.0000
21.2400 14033.0000 1.0000
21.2600 13958.0000 1.0000
21.2800 14396.0000 1.0000
21.3000 14173.0000 1.0000
21.3200 14351.0000 1.0000
21.3400 14311.0000 1.0000
21.3600 14173.0000 1.0000
21.3800 14013.0000 1.0000
21.4000 14125.0000 1.0000
21.4200 14221.0000 1.0000
21.4400 14287.0000 1.0000
21.4600 14075.0000 1.0000
21.4800 14111.0000 1.0000
21.5000 14258.0000 1.0000
21.5200 14041.0000 1.0000
21.5400 14285.0000 1.0000
21.5600 14016.0000 1.0000
21.5800 14278.0000 1.0000
21.6000 14194.0000 1.0000
21.6200 14241.0000 1.0000
21.6400 14182.0000 1.0000
21.6600 14065.0000 1.0000
21.6800 14081.0000 1.0000
21.7000 14088.0000 1.0000
21.7200 14155.0000 1.0000
21.7400 13840.0000 1.0000
21.7600 13859.0000 1.0000
21.7800 14129.0000 1.0000
21.8000 14242.0000 1.0000
21.8200 14251.0000 1.0000
21.8400 14134.0000 1.0000
21.8600 14398.0000 1.0000
21.8800 14074.0000 1.0000
21.9000 14170.0000 1.0000
21.9200 14026.0000 1.0000
21.9400 13940.0000 1.0000
21.9600 14144.0000 1.0000
21.9800 13952.0000 1.0000
22.0000 14055.0000 1.0000
22.0200 14122.0000 1.0000
22.0400 14150.0000 1.0000
22.0600 14271.0000 1.0000
22.0800 14178.0000 1.0000
22.1000 14171.0000 1.0000
22.1200 14167.0000 1.0000
22.1400 14324.0000 1.0000
22.1600 14034.0000 1.0000
22.1800 14092.0000 1.0000
22.2000 14265.0000 1.0000
22.2200 14079.0000 1.0000
22.2400 13860.0000 1.0000
22.2600 14077.0000 1.0000
22.2800 14069.0000 1.0000
22.3000 14130.0000 1.0000
22.3200 14134.0000 1.0000
22.3400 14105.0000 1.0000
22.3600 14201.0000 1.0000
22.3800 14101.0000 1.0000
22.4000 14265.0000 1.0000
22.4200 14051.0000 1.0000
22.4400 14095.0000 1.0000
22.4600 14193.0000 1.0000
22.4800 14162.0000 1.0000
22.5000 14158.0000 1.0000
22.5200 14252.0000 1.0000
22.5400 14337.0000 1.0000
22.5600 14232.0000 1.0000
22.5800 14075.0000 1.0000
22.6000 14082.0000 1.0000
22.6200 14015.0000 1.0000
22.6400 13976.0000 1.0000
22.6600 14142.0000 1.0000
22.6800 14007.0000 1.0000
22.7000 14073.0000 1.0000
22.7200 14143.0000 1.0000
22.7400 14092.0000 1.0000
22.7600 14096.0000 1.0000
22.7800 14213.0000 1.0000
22.8000 14132.0000 1.0000
22.8200 14338.0000 1.0000
22.8400 14180.0000 1.0000
22.8600 14053.0000 1.0000
22.8800 14239.0000 1.0000
22.9000 14225.0000 1.0000
22.9200 13993.0000 1.0000
22.9400 14153.0000 1.0000
22.9600 14206.0000 1.0000
22.9800 14320.0000 1.0000
23.0000 13994.0000 1.0000
23.0200 14320.0000 1.0000
23.0400 14094.0000 1.0000
23.0600 14153.0000 1.0000
23.0800 14061.0000 1.0000
23.1000 14143.0000 1.0000
23.1200 14052.0000 1.0000
23.1400 14272.0000 1.0000
23.1600 14303.0000 1.0000
23.1800 14215.0000 1.0000
23.2000 13932.0000 1.0000
23.2200 14009.0000 1.0000
23.2400 13958.0000 1.0000
23.2600 13970.0000 1.0000
23.2800 14190.0000 1.0000
23.3000 13924.0000 1.0000
23.3200 13892.0000 1.0000
23.3400 14097.0000 1.0000
23.3600 14080.0000 1.0000
23.3800 14256.0000 1.0000
23.4000 14090.0000 1.0000
23.4200 14389.0000 1.0000
23.4400 14113.0000 1.0000
23.4600 14350.0000 1.0000
23.4800 14238.0000 1.0000
23.5000 14072.0000 1.0000
23.5200 14264.0000 1.0000
23.5400 14019.0000 1.0000
23.5600 14174.0000 1.0000
23.5800 13890.0000 1.0000
23.6000 14394.0000 1.0000
23.6200 14324.0000 1.0000
23.6400 14340.0000 1.0000
23.6600 14098.0000 1.0000
23.6800 14200.0000 1.0000
23.7000 14133.0000 1.0000
23.7200 14277.0000 1.0000
23.7400 14112.0000 1.0000
23.7600 14440.0000 1.0000
23.7800 14306.0000 1.0000
23.8000 14190.0000 1.0000
23.8200 14425.0000 1.0000
23.8400 14370.0000 1.0000
23.8600 14316.0000 1.0000
23.8800 14462.0000 1.0000
23.9000 14422.0000 1.0000
23.9200 14450.0000 1.0000
23.9400 14500.0000 1.0000
23.9600 14459.0000 1.0000
23.9800 14534.0000 1.0000
24.0000 14610.0000 1.0000
24.0200 14780.0000 1.0000
24.0400 15017.0000 1.0000
24.0600 15422.0000 1.0000
24.0800 15646.0000 1.0000
24.1000 15816.0000 1.0000
24.1200 16325.0000 1.0000
24.1400 16848.0000 1.0000
24.1600 16870.0000 1.0000
24.1800 16727.0000 1.0000
24.2000 16603.0000 1.0000
24.2200 16018.0000 1.0000
24.2400 15396.0000 1.0000
24.2600 14923.0000 1.0000
24.2800 14622.0000 1.0000
24.3000 14469.0000 1.0000
24.3200 14685.0000 1.0000
24.3400 14320.0000 1.0000
24.3600 14264.0000 1.0000
24.3800 14235.0000 1.0000
24.4000 14268.0000 1.0000
24.4200 14138.0000 1.0000
24.4400 14122.0000 1.0000
24.4600 14191.0000 1.0000
24.4800 14128.0000 1.0000
24.5000 14122.0000 1.0000
24.5200 14152.0000 1.0000
24.5400 14180.0000 1.0000
24.5600 14055.0000 1.0000
24.5800 14147.0000 1.0000
24.6000 14218.0000 1.0000
24.6200 14018.0000 1.0000
24.6400 13949.0000 1.0000
24.6600 14003.0000 1.0000
24.6800 13919.0000 1.0000
24.7000 14191.0000 1.0000
24.7200 13897.0000 1.0000
24.7400 13989.0000 1.0000
24.7600 14188.0000 1.0000
24.7800 14069.0000 1.0000
24.8000 13944.0000 1.0000
24.8200 14050.0000 1.0000
24.8400 14098.0000 1.0000
24.8600 13986.0000 1.0000
24.8800 14356.0000 1.0000
24.9000 14131.0000 1.0000
24.9200 14260.0000 1.0000
24.9400 14249.0000 1.0000
24.9600 14113.0000 1.0000
24.9800 14179.0000 1.0000
25.0000 14128.0000 1.0000
25.0200 14323.0000 1.0000
25.0400 14111.0000 1.0000
25.0600 14179.0000 1.0000
25.0800 14097.0000 1.0000
25.1000 14136.0000 1.0000
25.1200 14067.0000 1.0000
25.1400 14388.0000 1.0000
25.1600 14179.0000 1.0000
25.1800 14055.0000 1.0000
25.2000 14153.0000 1.0000
25.2200 14085.0000 1.0000
25.2400 14116.0000 1.0000
25.2600 13815.0000 1.0000
25.2800 13919.0000 1.0000
25.3000 14012.0000 1.0000
25.3200 14348.0000 1.0000
25.3400 14143.0000 1.0000
25.3600 14113.0000 1.0000
25.3800 14182.0000 1.0000
25.4000 14214.0000 1.0000
25.4200 14430.0000 1.0000
25.4400 14350.0000 1.0000
25.4600 14284.0000 1.0000
25.4800 14369.0000 1.0000
25.5000 14667.0000 1.0000
25.5200 14510.0000 1.0000
25.5400 14689.0000 1.0000
25.5600 14636.0000 1.0000
25.5800 14696.0000 1.0000
25.6000 14782.0000 1.0000
25.6200 14804.0000 1.0000
25.6400 14627.0000 1.0000
25.6600 14135.0000 1.0000
25.6800 14400.0000 1.0000
25.7000 14394.0000 1.0000
25.7200 14195.0000 1.0000
25.7400 14223.0000 1.0000
25.7600 14288.0000 1.0000
25.7800 14162.0000 1.0000
25.8000 14169.0000 1.0000
25.8200 14034.0000 1.0000
25.8400 14158.0000 1.0000
25.8600 14157.0000 1.0000
25.8800 14068.0000 1.0000
25.9000 14047.0000 1.0000
25.9200 14183.0000 1.0000
25.9400 14212.0000 1.0000
25.9600 14226.0000 1.0000
25.9800 14022.0000 1.0000
26.0000 13935.0000 1.0000
26.0200 13804.0000 1.0000
26.0400 14097.0000 1.0000
26.0600 13992.0000 1.0000
26.0800 14104.0000 1.0000
26.1000 14132.0000 1.0000
