*RAS_DATA_START
*RAS_HEADER_START
*DISP_FMT_X "%.2f"
*DISP_FMT_Y "%.0f"
*DISP_FULLSCALE "130792.0000000000"
*DISP_LINE_COLOR "255.0000000000"
*DISP_LINE_STYLE "0.0000000000"
*DISP_LINE_WIDTH "0.2500000000"
*DISP_NOTE "測定データ-4"
*DISP_OFFSET_Y "0.0000000000"
*DISP_PEAKSEARCH_UNIT_Y "cps"
*DISP_RANGE_BOTTOM "0.0000000000"
*DISP_RANGE_LEFT "20.0000000000"
*DISP_RANGE_LOGCUTOFF "0.0100000000"
*DISP_RANGE_RIGHT "90.0000000000"
*DISP_RANGE_TOP "130792.0000000000"
*DISP_SCALE_MODE_Y "0.0000000000"
*DISP_TAB_NAME "2θ/θ"
*DISP_TITLE_Y "強度"
*DISP_UNIT_Y "cps"
*DISP_WINDOW_NAME "MSG_MACROENGINE"
*FILE_COMMENT " "
*FILE_MD5 ""
*FILE_MEMO " "
*FILE_OPERATOR "Administrator"
*FILE_SAMPLE " "
*FILE_TYPE "RAS_RAW"
*FILE_USERGROUP "システムマネージャ"
*FILE_VERSION "1.0000000000"
*HW_ATTACHMENT_ID "ATT0025"
*HW_ATTACHMENT_NAME "標準|Standard"
*HW_COUNTER_ID-0 "CUT0025"
*HW_COUNTER_ID-1 "CUT0020"
*HW_COUNTER_ID-2 "CUT0020"
*HW_COUNTER_ID-3 "CSL0021"
*HW_COUNTER_ID-4 "CMC0021"
*HW_COUNTER_NAME-0 "D/teX Ultra|D/teX Ultra"
*HW_COUNTER_NAME-1 "None|None"
*HW_COUNTER_NAME-2 "None|None"
*HW_COUNTER_NAME-3 "BBM|BBM"
*HW_COUNTER_NAME-4 "検出器モノクロメータ|Detector monochromator"
*HW_COUNTER_SELECT_NAME "D/teX Ultra|D/teX Ultra"
*HW_GONIOMETER_ID "GON0023"
*HW_GONIOMETER_NAME "SmartLab|SmartLab"
*HW_GONIOMETER_RADIUS-0 "90.0"
*HW_GONIOMETER_RADIUS-1 "114.0"
*HW_GONIOMETER_RADIUS-2 "190.0"
*HW_GONIOMETER_RADIUS-3 "300.0"
*HW_GONIOMETER_RADIUS-4 "187.0"
*HW_GONIOMETER_RADIUS-5 "300.0"
*HW_GONIOMETER_RADIUS-6 "113.0"
*HW_GONIOMETER_RADIUS-7 "331.0"
*HW_I_OPT_ID-0 "CBO0021"
*HW_I_OPT_ID-1 "ICR0023"
*HW_I_OPT_ID-2 "ISL0021"
*HW_I_OPT_ID-3 "ISO0021"
*HW_I_OPT_ID-4 "IAD0021"
*HW_I_OPT_ID-5 "IPR0001"
*HW_I_OPT_NAME-0 "CBOユニット|CBO unit"
*HW_I_OPT_NAME-1 "標準入射光学ユニット|Standard incident optical unit"
*HW_I_OPT_NAME-2 "標準入射スリットボックス|Standard incident slit box"
*HW_I_OPT_NAME-3 "入射平行スリット|Incident parallel slit"
*HW_I_OPT_NAME-4 "長手制限スリット|Length limiting slit"
*HW_I_OPT_NAME-5 "None|None"
*HW_R_ATTENUATER_AUTOMODE "0"
*HW_R_OPT_ID-0 "RSS0021"
*HW_R_OPT_ID-1 "RCR0023"
*HW_R_OPT_ID-2 "RSO0021"
*HW_R_OPT_ID-3 "RRS0021"
*HW_R_OPT_ID-4 "ATN0021"
*HW_R_OPT_ID-5 "RFL0021"
*HW_R_OPT_ID-6 "RAD0021"
*HW_R_OPT_NAME-0 "標準受光スリットボックス1|Standard receiving slit box # 1"
*HW_R_OPT_NAME-1 "標準受光光学ユニット1|Standard receiving unit # 1"
*HW_R_OPT_NAME-2 "標準受光光学ユニット2|Standard receiving optical unit # 2"
*HW_R_OPT_NAME-3 "標準受光スリットボックス2|Standard receiving slit box # 2"
*HW_R_OPT_NAME-4 "標準アッテネータ|Standard Attenuator"
*HW_R_OPT_NAME-5 "Cu Kβ|Cu K-beta"
*HW_R_OPT_NAME-6 "調整用受光スリット|Alignment receiving slit"
*HW_SAMPLE_HOLDER_ID "SMP0023"
*HW_SAMPLE_HOLDER_NAME "標準Zステージ|Standard Z stage"
*HW_XG_CURRENT_MAX "50"
*HW_XG_CURRENT_MIN "2"
*HW_XG_CURRENT_RESOLUTION "2"
*HW_XG_CURRENT_UNIT "mA"
*HW_XG_FOCUS "1mm x 10mm"
*HW_XG_FOCUS_TYPE "Normal"
*HW_XG_ID ""
*HW_XG_NAME "3kW 封入管(ID:1200)|3kW Sealed tube(ID:1200)"
*HW_XG_TARGET_ATOMIC_NUMBER "29.0000000000"
*HW_XG_TARGET_NAME "Cu"
*HW_XG_TYPE "Hermetic"
*HW_XG_VOLTAGE_MAX "60"
*HW_XG_VOLTAGE_MIN "20"
*HW_XG_VOLTAGE_RESOLUTION "2"
*HW_XG_VOLTAGE_UNIT "kV"
*HW_XG_WATT_MAX "2"
*HW_XG_WATT_UNIT "kW"
*HW_XG_WAVE_LENGTH_ALPHA1 "1.540593"
*HW_XG_WAVE_LENGTH_ALPHA2 "1.544414"
*HW_XG_WAVE_LENGTH_BETA "1.392250"
*MEAS_COND_AXIS_NAME-0 "2θ/θ"
*MEAS_COND_AXIS_NAME-1 "2θ"
*MEAS_COND_AXIS_NAME-2 "ω"
*MEAS_COND_AXIS_NAME-3 "Z"
*MEAS_COND_AXIS_NAME-4 "2θ/ω"
*MEAS_COND_AXIS_NAME-5 "θs"
*MEAS_COND_AXIS_NAME-6 "θd"
*MEAS_COND_AXIS_NAME-7 "Ts"
*MEAS_COND_AXIS_NAME-8 "CBO選択スリット"
*MEAS_COND_AXIS_NAME-9 "M"
*MEAS_COND_AXIS_NAME-10 "入射平行スリット"
*MEAS_COND_AXIS_NAME-11 "入射スリット"
*MEAS_COND_AXIS_NAME-12 ""
*MEAS_COND_AXIS_NAME-13 "Zs"
*MEAS_COND_AXIS_NAME-14 "入射光学素子"
*MEAS_COND_AXIS_NAME-15 "長手制限スリット"
*MEAS_COND_AXIS_NAME-16 "センタースリット"
*MEAS_COND_AXIS_NAME-17 "フィルター"
*MEAS_COND_AXIS_NAME-18 "受光スリット1"
*MEAS_COND_AXIS_NAME-19 "受光スリット2"
*MEAS_COND_AXIS_NAME-20 "受光光学素子"
*MEAS_COND_AXIS_NAME-21 "受光平行スリット"
*MEAS_COND_AXIS_NAME-22 "調整用受光スリット"
*MEAS_COND_AXIS_NAME-23 ""
*MEAS_COND_AXIS_NAME-24 ""
*MEAS_COND_AXIS_NAME-25 "Zd"
*MEAS_COND_AXIS_NAME-26 "アッテネータ"
*MEAS_COND_AXIS_NAME-27 "検出器モノクロメータ"
*MEAS_COND_AXIS_NAME-28 "モノクロメータスリット"
*MEAS_COND_AXIS_NAME-29 "プライマリビーム"
*MEAS_COND_AXIS_NAME-30 "PHA"
*MEAS_COND_AXIS_NAME_INTERNAL-0 "TwoThetaTheta"
*MEAS_COND_AXIS_NAME_INTERNAL-1 "TwoTheta"
*MEAS_COND_AXIS_NAME_INTERNAL-2 "Omega"
*MEAS_COND_AXIS_NAME_INTERNAL-3 "Z"
*MEAS_COND_AXIS_NAME_INTERNAL-4 "TwoThetaOmega"
*MEAS_COND_AXIS_NAME_INTERNAL-5 "ThetaS"
*MEAS_COND_AXIS_NAME_INTERNAL-6 "ThetaD"
*MEAS_COND_AXIS_NAME_INTERNAL-7 "Ts"
*MEAS_COND_AXIS_NAME_INTERNAL-8 "CBO"
*MEAS_COND_AXIS_NAME_INTERNAL-9 "CBO-M"
*MEAS_COND_AXIS_NAME_INTERNAL-10 "IncidentSollerSlit"
*MEAS_COND_AXIS_NAME_INTERNAL-11 "IncidentSlitBox"
*MEAS_COND_AXIS_NAME_INTERNAL-12 "IncidentSlitBox-_Axis"
*MEAS_COND_AXIS_NAME_INTERNAL-13 "Zs"
*MEAS_COND_AXIS_NAME_INTERNAL-14 "IncidentMonochromator"
*MEAS_COND_AXIS_NAME_INTERNAL-15 "IncidentAxdSlit"
*MEAS_COND_AXIS_NAME_INTERNAL-16 "CenterSlit"
*MEAS_COND_AXIS_NAME_INTERNAL-17 "Filter"
*MEAS_COND_AXIS_NAME_INTERNAL-18 "ReceivingSlitBox1"
*MEAS_COND_AXIS_NAME_INTERNAL-19 "ReceivingSlitBox2"
*MEAS_COND_AXIS_NAME_INTERNAL-20 "ReceivingOptics"
*MEAS_COND_AXIS_NAME_INTERNAL-21 "ReceivingSollerSlit"
*MEAS_COND_AXIS_NAME_INTERNAL-22 "ReceivingAxdSlit"
*MEAS_COND_AXIS_NAME_INTERNAL-23 "ReceivingSlitBox1-_Axis"
*MEAS_COND_AXIS_NAME_INTERNAL-24 "ReceivingSlitBox2-_Axis"
*MEAS_COND_AXIS_NAME_INTERNAL-25 "ReceivingSlitBox2-Zd"
*MEAS_COND_AXIS_NAME_INTERNAL-26 "Attenuator"
*MEAS_COND_AXIS_NAME_INTERNAL-27 "CounterMonochromator"
*MEAS_COND_AXIS_NAME_INTERNAL-28 "CounterSlit"
*MEAS_COND_AXIS_NAME_INTERNAL-29 "IncidentPrimary"
*MEAS_COND_AXIS_NAME_INTERNAL-30 "PHA"
*MEAS_COND_AXIS_NAME_MAGICNO-0 "83951616.0000000000"
*MEAS_COND_AXIS_NAME_MAGICNO-1 "268632064.0000000000"
*MEAS_COND_AXIS_NAME_MAGICNO-2 "268500992.0000000000"
*MEAS_COND_AXIS_NAME_MAGICNO-3 "285278208.0000000000"
*MEAS_COND_AXIS_NAME_MAGICNO-4 "83951616.0000000000"
*MEAS_COND_AXIS_NAME_MAGICNO-5 "131072.0000000000"
*MEAS_COND_AXIS_NAME_MAGICNO-6 "131072.0000000000"
*MEAS_COND_AXIS_NAME_MAGICNO-7 "318898176.0000000000"
*MEAS_COND_AXIS_NAME_MAGICNO-8 "20971521.0000000000"
*MEAS_COND_AXIS_NAME_MAGICNO-9 "285343744.0000000000"
*MEAS_COND_AXIS_NAME_MAGICNO-10 "20971521.0000000000"
*MEAS_COND_AXIS_NAME_MAGICNO-11 "22020097.0000000000"
*MEAS_COND_AXIS_NAME_MAGICNO-12 "25165824.0000000000"
*MEAS_COND_AXIS_NAME_MAGICNO-13 "318898176.0000000000"
*MEAS_COND_AXIS_NAME_MAGICNO-14 "1.0000000000"
*MEAS_COND_AXIS_NAME_MAGICNO-15 "20971521.0000000000"
*MEAS_COND_AXIS_NAME_MAGICNO-16 "20971521.0000000000"
*MEAS_COND_AXIS_NAME_MAGICNO-17 "20971521.0000000000"
*MEAS_COND_AXIS_NAME_MAGICNO-18 "23068673.0000000000"
*MEAS_COND_AXIS_NAME_MAGICNO-19 "23068673.0000000000"
*MEAS_COND_AXIS_NAME_MAGICNO-20 "20971521.0000000000"
*MEAS_COND_AXIS_NAME_MAGICNO-21 "20971521.0000000000"
*MEAS_COND_AXIS_NAME_MAGICNO-22 "20971521.0000000000"
*MEAS_COND_AXIS_NAME_MAGICNO-23 "25165824.0000000000"
*MEAS_COND_AXIS_NAME_MAGICNO-24 "25165824.0000000000"
*MEAS_COND_AXIS_NAME_MAGICNO-25 "285343744.0000000000"
*MEAS_COND_AXIS_NAME_MAGICNO-26 "17301505.0000000000"
*MEAS_COND_AXIS_NAME_MAGICNO-27 "20971521.0000000000"
*MEAS_COND_AXIS_NAME_MAGICNO-28 "20971521.0000000000"
*MEAS_COND_AXIS_NAME_MAGICNO-29 "20971521.0000000000"
*MEAS_COND_AXIS_NAME_MAGICNO-30 "0.0000000000"
*MEAS_COND_AXIS_OFFSET-0 "-"
*MEAS_COND_AXIS_OFFSET-1 "-0.1081000000"
*MEAS_COND_AXIS_OFFSET-2 "0.3758000000"
*MEAS_COND_AXIS_OFFSET-3 "-"
*MEAS_COND_AXIS_OFFSET-4 "-"
*MEAS_COND_AXIS_OFFSET-5 "0.3758000000"
*MEAS_COND_AXIS_OFFSET-6 "-0.4839000000"
*MEAS_COND_AXIS_OFFSET-7 "-"
*MEAS_COND_AXIS_OFFSET-8 "-"
*MEAS_COND_AXIS_OFFSET-9 "-"
*MEAS_COND_AXIS_OFFSET-10 "-"
*MEAS_COND_AXIS_OFFSET-11 "-"
*MEAS_COND_AXIS_OFFSET-12 "-"
*MEAS_COND_AXIS_OFFSET-13 "-"
*MEAS_COND_AXIS_OFFSET-14 "-"
*MEAS_COND_AXIS_OFFSET-15 "-"
*MEAS_COND_AXIS_OFFSET-16 "-"
*MEAS_COND_AXIS_OFFSET-17 "-"
*MEAS_COND_AXIS_OFFSET-18 "-"
*MEAS_COND_AXIS_OFFSET-19 "-"
*MEAS_COND_AXIS_OFFSET-20 "-"
*MEAS_COND_AXIS_OFFSET-21 "-"
*MEAS_COND_AXIS_OFFSET-22 "-"
*MEAS_COND_AXIS_OFFSET-23 "-"
*MEAS_COND_AXIS_OFFSET-24 "-"
*MEAS_COND_AXIS_OFFSET-25 "-"
*MEAS_COND_AXIS_OFFSET-26 "-"
*MEAS_COND_AXIS_OFFSET-27 "-"
*MEAS_COND_AXIS_OFFSET-28 "-"
*MEAS_COND_AXIS_OFFSET-29 "-"
*MEAS_COND_AXIS_OFFSET-30 "-"
*MEAS_COND_AXIS_POSITION-0 "0.0000000000"
*MEAS_COND_AXIS_POSITION-1 "0.0000000000"
*MEAS_COND_AXIS_POSITION-2 "0.0000000000"
*MEAS_COND_AXIS_POSITION-3 "-0.5500000000"
*MEAS_COND_AXIS_POSITION-4 "0.0000000000"
*MEAS_COND_AXIS_POSITION-5 "0.0000000000"
*MEAS_COND_AXIS_POSITION-6 "0.0000000000"
*MEAS_COND_AXIS_POSITION-7 "-0.4278800000"
*MEAS_COND_AXIS_POSITION-8 "BB"
*MEAS_COND_AXIS_POSITION-9 "0.0000000000"
*MEAS_COND_AXIS_POSITION-10 "Soller_slit_5.0deg"
*MEAS_COND_AXIS_POSITION-11 "2/3deg"
*MEAS_COND_AXIS_POSITION-12 "2.2088000000"
*MEAS_COND_AXIS_POSITION-13 "-0.4140600000"
*MEAS_COND_AXIS_POSITION-14 "0.0000000000"
*MEAS_COND_AXIS_POSITION-15 "10.0mm"
*MEAS_COND_AXIS_POSITION-16 "None"
*MEAS_COND_AXIS_POSITION-17 "Cu_K-beta"
*MEAS_COND_AXIS_POSITION-18 "13.000mm"
*MEAS_COND_AXIS_POSITION-19 "13.000mm"
*MEAS_COND_AXIS_POSITION-20 "No_unit"
*MEAS_COND_AXIS_POSITION-21 "Soller_slit_5.0deg"
*MEAS_COND_AXIS_POSITION-22 "None"
*MEAS_COND_AXIS_POSITION-23 "13.0000000000"
*MEAS_COND_AXIS_POSITION-24 "13.0000000000"
*MEAS_COND_AXIS_POSITION-25 "0.0109400000"
*MEAS_COND_AXIS_POSITION-26 "Open"
*MEAS_COND_AXIS_POSITION-27 "None"
*MEAS_COND_AXIS_POSITION-28 "None"
*MEAS_COND_AXIS_POSITION-29 "None"
*MEAS_COND_AXIS_POSITION-30 "38.0000000000"
*MEAS_COND_AXIS_UNIT-0 "deg"
*MEAS_COND_AXIS_UNIT-1 "deg"
*MEAS_COND_AXIS_UNIT-2 "deg"
*MEAS_COND_AXIS_UNIT-3 "mm"
*MEAS_COND_AXIS_UNIT-4 "deg"
*MEAS_COND_AXIS_UNIT-5 "deg"
*MEAS_COND_AXIS_UNIT-6 "deg"
*MEAS_COND_AXIS_UNIT-7 "mm"
*MEAS_COND_AXIS_UNIT-8 ""
*MEAS_COND_AXIS_UNIT-9 "pulse"
*MEAS_COND_AXIS_UNIT-10 ""
*MEAS_COND_AXIS_UNIT-11 ""
*MEAS_COND_AXIS_UNIT-12 "mm"
*MEAS_COND_AXIS_UNIT-13 "mm"
*MEAS_COND_AXIS_UNIT-14 ""
*MEAS_COND_AXIS_UNIT-15 ""
*MEAS_COND_AXIS_UNIT-16 ""
*MEAS_COND_AXIS_UNIT-17 ""
*MEAS_COND_AXIS_UNIT-18 ""
*MEAS_COND_AXIS_UNIT-19 ""
*MEAS_COND_AXIS_UNIT-20 ""
*MEAS_COND_AXIS_UNIT-21 ""
*MEAS_COND_AXIS_UNIT-22 ""
*MEAS_COND_AXIS_UNIT-23 "mm"
*MEAS_COND_AXIS_UNIT-24 "mm"
*MEAS_COND_AXIS_UNIT-25 "mm"
*MEAS_COND_AXIS_UNIT-26 ""
*MEAS_COND_AXIS_UNIT-27 ""
*MEAS_COND_AXIS_UNIT-28 ""
*MEAS_COND_AXIS_UNIT-29 ""
*MEAS_COND_AXIS_UNIT-30 "div"
*MEAS_COND_COUNTER_CNTLOSS_CORR "0.0000000000"
*MEAS_COND_COUNTER_PHABASE "38.0000000000"
*MEAS_COND_COUNTER_PHAWINDOW "16.0000000000"
*MEAS_COND_COUNTER_PHA_UNIT "div"
*MEAS_COND_COUNTER_TAUDIFF "30.0000000000"
*MEAS_COND_COUNTER_TAUINT "0.0000000000"
*MEAS_COND_IRRADIATION_MODE "OFF"
*MEAS_COND_IRRADIATION_WIDTH ""
*MEAS_COND_OPT_ATTR "集中法"
*MEAS_COND_OPT_NAME "@集中法"
*MEAS_COND_UNSYMMETRIC_MODE "OFF"
*MEAS_COND_XG_CURRENT "30.0000000000"
*MEAS_COND_XG_VOLTAGE "40.0000000000"
*MEAS_COND_XG_WAVE_TYPE "Ka"
*MEAS_DATA_COUNT "3501.0000000000"
*MEAS_SCAN_AXIS_X "2θ/θ"
*MEAS_SCAN_AXIS_X_INTERNAL "TwoThetaTheta"
*MEAS_SCAN_END_TIME "08/26/20 17:04:15"
*MEAS_SCAN_MODE "CONTINUOUS"
*MEAS_SCAN_MONITOR "0"
*MEAS_SCAN_RESOLUTION_X "0.0002"
*MEAS_SCAN_SPEED "1.0"
*MEAS_SCAN_SPEED_UNIT "deg/min"
*MEAS_SCAN_START "20.0000000000"
*MEAS_SCAN_START_TIME "08/26/20 15:51:21"
*MEAS_SCAN_STEP "0.0200000000"
*MEAS_SCAN_STOP "90.0000000000"
*MEAS_SCAN_UNIT_X "deg"
*MEAS_SCAN_UNIT_Y "counts"
*RAS_HEADER_END
*RAS_INT_START
20.0000 6841.0000 1.0000
20.0200 6929.0000 1.0000
20.0400 6867.0000 1.0000
20.0600 6955.0000 1.0000
20.0800 6956.0000 1.0000
20.1000 6833.0000 1.0000
20.1200 6864.0000 1.0000
20.1400 6871.0000 1.0000
20.1600 6883.0000 1.0000
20.1800 6914.0000 1.0000
20.2000 6922.0000 1.0000
20.2200 7023.0000 1.0000
20.2400 6963.0000 1.0000
20.2600 7003.0000 1.0000
20.2800 6949.0000 1.0000
20.3000 6973.0000 1.0000
20.3200 6988.0000 1.0000
20.3400 7031.0000 1.0000
20.3600 6942.0000 1.0000
20.3800 6915.0000 1.0000
20.4000 6939.0000 1.0000
20.4200 7013.0000 1.0000
20.4400 6988.0000 1.0000
20.4600 7111.0000 1.0000
20.4800 7069.0000 1.0000
20.5000 7204.0000 1.0000
20.5200 7318.0000 1.0000
20.5400 7500.0000 1.0000
20.5600 7440.0000 1.0000
20.5800 7552.0000 1.0000
20.6000 7829.0000 1.0000
20.6200 8013.0000 1.0000
20.6400 8289.0000 1.0000
20.6600 8675.0000 1.0000
20.6800 9194.0000 1.0000
20.7000 9467.0000 1.0000
20.7200 10135.0000 1.0000
20.7400 11551.0000 1.0000
20.7600 12565.0000 1.0000
20.7800 14426.0000 1.0000
20.8000 17402.0000 1.0000
20.8200 20949.0000 1.0000
20.8400 26950.0000 1.0000
20.8600 32881.0000 1.0000
20.8800 29103.0000 1.0000
20.9000 23123.0000 1.0000
20.9200 19748.0000 1.0000
20.9400 14331.0000 1.0000
20.9600 10074.0000 1.0000
20.9800 8659.0000 1.0000
21.0000 8001.0000 1.0000
21.0200 7694.0000 1.0000
21.0400 7464.0000 1.0000
21.0600 7384.0000 1.0000
21.0800 7095.0000 1.0000
21.1000 7059.0000 1.0000
21.1200 6983.0000 1.0000
21.1400 6996.0000 1.0000
21.1600 6866.0000 1.0000
21.1800 6801.0000 1.0000
21.2000 6870.0000 1.0000
21.2200 6835.0000 1.0000
21.2400 6761.0000 1.0000
21.2600 6740.0000 1.0000
21.2800 6666.0000 1.0000
21.3000 6748.0000 1.0000
21.3200 6723.0000 1.0000
21.3400 6786.0000 1.0000
21.3600 6608.0000 1.0000
21.3800 6572.0000 1.0000
21.4000 6769.0000 1.0000
21.4200 6638.0000 1.0000
21.4400 6658.0000 1.0000
21.4600 6603.0000 1.0000
21.4800 6674.0000 1.0000
21.5000 6576.0000 1.0000
21.5200 6720.0000 1.0000
21.5400 6600.0000 1.0000
21.5600 6660.0000 1.0000
21.5800 6660.0000 1.0000
21.6000 6677.0000 1.0000
21.6200 6550.0000 1.0000
21.6400 6722.0000 1.0000
21.6600 6622.0000 1.0000
21.6800 6753.0000 1.0000
21.7000 6642.0000 1.0000
21.7200 6592.0000 1.0000
21.7400 6610.0000 1.0000
21.7600 6512.0000 1.0000
21.7800 6638.0000 1.0000
21.8000 6735.0000 1.0000
21.8200 6564.0000 1.0000
21.8400 6613.0000 1.0000
21.8600 6705.0000 1.0000
21.8800 6710.0000 1.0000
21.9000 6674.0000 1.0000
21.9200 6457.0000 1.0000
21.9400 6641.0000 1.0000
21.9600 6570.0000 1.0000
21.9800 6517.0000 1.0000
22.0000 6534.0000 1.0000
22.0200 6613.0000 1.0000
22.0400 6552.0000 1.0000
22.0600 6561.0000 1.0000
22.0800 6513.0000 1.0000
22.1000 6712.0000 1.0000
22.1200 6556.0000 1.0000
22.1400 6668.0000 1.0000
22.1600 6451.0000 1.0000
22.1800 6512.0000 1.0000
22.2000 6568.0000 1.0000
22.2200 6568.0000 1.0000
22.2400 6531.0000 1.0000
22.2600 6522.0000 1.0000
22.2800 6401.0000 1.0000
22.3000 6443.0000 1.0000
22.3200 6439.0000 1.0000
22.3400 6721.0000 1.0000
22.3600 6488.0000 1.0000
22.3800 6437.0000 1.0000
22.4000 6531.0000 1.0000
22.4200 6645.0000 1.0000
22.4400 6604.0000 1.0000
22.4600 6565.0000 1.0000
22.4800 6436.0000 1.0000
22.5000 6517.0000 1.0000
22.5200 6410.0000 1.0000
22.5400 6359.0000 1.0000
22.5600 6428.0000 1.0000
22.5800 6347.0000 1.0000
22.6000 6397.0000 1.0000
22.6200 6555.0000 1.0000
22.6400 6450.0000 1.0000
22.6600 6536.0000 1.0000
22.6800 6560.0000 1.0000
22.7000 6617.0000 1.0000
22.7200 6595.0000 1.0000
22.7400 6269.0000 1.0000
22.7600 6389.0000 1.0000
22.7800 6431.0000 1.0000
22.8000 6447.0000 1.0000
22.8200 6360.0000 1.0000
22.8400 6405.0000 1.0000
22.8600 6430.0000 1.0000
22.8800 6404.0000 1.0000
22.9000 6296.0000 1.0000
22.9200 6293.0000 1.0000
22.9400 6321.0000 1.0000
22.9600 6367.0000 1.0000
22.9800 6391.0000 1.0000
23.0000 6411.0000 1.0000
23.0200 6279.0000 1.0000
23.0400 6407.0000 1.0000
23.0600 6455.0000 1.0000
23.0800 6464.0000 1.0000
23.1000 6323.0000 1.0000
23.1200 6395.0000 1.0000
23.1400 6519.0000 1.0000
23.1600 6319.0000 1.0000
23.1800 6311.0000 1.0000
23.2000 6380.0000 1.0000
23.2200 6342.0000 1.0000
23.2400 6468.0000 1.0000
23.2600 6332.0000 1.0000
23.2800 6417.0000 1.0000
23.3000 6323.0000 1.0000
23.3200 6392.0000 1.0000
23.3400 6357.0000 1.0000
23.3600 6249.0000 1.0000
23.3800 6552.0000 1.0000
23.4000 6200.0000 1.0000
23.4200 6380.0000 1.0000
23.4400 6157.0000 1.0000
23.4600 6349.0000 1.0000
23.4800 6369.0000 1.0000
23.5000 6250.0000 1.0000
23.5200 6305.0000 1.0000
23.5400 6310.0000 1.0000
23.5600 6342.0000 1.0000
23.5800 6445.0000 1.0000
23.6000 6348.0000 1.0000
23.6200 6483.0000 1.0000
23.6400 6294.0000 1.0000
23.6600 6444.0000 1.0000
23.6800 6464.0000 1.0000
23.7000 6304.0000 1.0000
23.7200 6316.0000 1.0000
23.7400 6264.0000 1.0000
23.7600 6294.0000 1.0000
23.7800 6453.0000 1.0000
23.8000 6391.0000 1.0000
23.8200 6365.0000 1.0000
23.8400 6296.0000 1.0000
23.8600 6554.0000 1.0000
23.8800 6570.0000 1.0000
23.9000 6621.0000 1.0000
23.9200 6644.0000 1.0000
23.9400 6887.0000 1.0000
23.9600 6820.0000 1.0000
23.9800 7111.0000 1.0000
24.0000 7500.0000 1.0000
24.0200 7897.0000 1.0000
24.0400 7972.0000 1.0000
24.0600 7784.0000 1.0000
24.0800 7785.0000 1.0000
24.1000 7843.0000 1.0000
24.1200 8261.0000 1.0000
24.1400 8386.0000 1.0000
24.1600 8215.0000 1.0000
24.1800 8010.0000 1.0000
24.2000 7632.0000 1.0000
24.2200 7293.0000 1.0000
24.2400 6994.0000 1.0000
24.2600 6761.0000 1.0000
24.2800 6620.0000 1.0000
24.3000 6575.0000 1.0000
24.3200 6359.0000 1.0000
24.3400 6432.0000 1.0000
24.3600 6382.0000 1.0000
24.3800 6225.0000 1.0000
24.4000 6177.0000 1.0000
24.4200 6199.0000 1.0000
24.4400 6076.0000 1.0000
24.4600 6243.0000 1.0000
24.4800 6329.0000 1.0000
24.5000 6278.0000 1.0000
24.5200 6300.0000 1.0000
24.5400 6261.0000 1.0000
24.5600 6312.0000 1.0000
24.5800 6162.0000 1.0000
24.6000 6140.0000 1.0000
24.6200 6338.0000 1.0000
24.6400 6332.0000 1.0000
24.6600 6243.0000 1.0000
24.6800 6218.0000 1.0000
24.7000 6179.0000 1.0000
24.7200 6293.0000 1.0000
24.7400 6281.0000 1.0000
24.7600 6380.0000 1.0000
24.7800 6164.0000 1.0000
24.8000 6302.0000 1.0000
24.8200 6222.0000 1.0000
24.8400 6235.0000 1.0000
24.8600 6069.0000 1.0000
24.8800 6086.0000 1.0000
24.9000 6252.0000 1.0000
24.9200 6155.0000 1.0000
24.9400 6223.0000 1.0000
24.9600 6242.0000 1.0000
24.9800 6104.0000 1.0000
25.0000 6370.0000 1.0000
25.0200 6178.0000 1.0000
25.0400 6193.0000 1.0000
25.0600 6238.0000 1.0000
25.0800 6248.0000 1.0000
25.1000 6269.0000 1.0000
25.1200 6313.0000 1.0000
25.1400 6193.0000 1.0000
25.1600 6269.0000 1.0000
25.1800 6238.0000 1.0000
25.2000 6274.0000 1.0000
25.2200 6326.0000 1.0000
25.2400 6373.0000 1.0000
25.2600 6415.0000 1.0000
25.2800 6573.0000 1.0000
25.3000 6634.0000 1.0000
25.3200 6757.0000 1.0000
25.3400 6965.0000 1.0000
25.3600 7074.0000 1.0000
25.3800 7291.0000 1.0000
25.4000 7419.0000 1.0000
25.4200 7932.0000 1.0000
25.4400 8239.0000 1.0000
25.4600 8768.0000 1.0000
25.4800 9469.0000 1.0000
25.5000 10448.0000 1.0000
25.5200 11522.0000 1.0000
25.5400 12677.0000 1.0000
25.5600 13613.0000 1.0000
25.5800 13508.0000 1.0000
25.6000 12367.0000 1.0000
25.6200 11486.0000 1.0000
25.6400 10456.0000 1.0000
25.6600 9387.0000 1.0000
25.6800 8517.0000 1.0000
25.7000 7809.0000 1.0000
25.7200 7547.0000 1.0000
25.7400 7357.0000 1.0000
25.7600 7241.0000 1.0000
25.7800 7080.0000 1.0000
25.8000 6981.0000 1.0000
25.8200 6813.0000 1.0000
25.8400 6798.0000 1.0000
25.8600 6994.0000 1.0000
25.8800 6816.0000 1.0000
25.9000 6575.0000 1.0000
25.9200 6714.0000 1.0000
25.9400 6673.0000 1.0000
25.9600 6745.0000 1.0000
25.9800 6721.0000 1.0000
26.0000 6674.0000 1.0000
26.0200 6762.0000 1.0000
26.0400 6610.0000 1.0000
26.0600 6709.0000 1.0000
26.0800 6614.0000 1.0000
26.1000 6535.0000 1.0000
26.1200 6865.0000 1.0000
26.1400 6616.0000 1.0000
26.1600 6769.0000 1.0000
26.1800 6680.0000 1.0000
26.2000 6808.0000 1.0000
26.2200 6780.0000 1.0000
26.2400 6945.0000 1.0000
26.2600 7054.0000 1.0000
26.2800 7358.0000 1.0000
26.3000 7450.0000 1.0000
